Experiment	bias spectroscopy	
Saved Date	07.11.2019 11:27:29	
User		
Date		
X (m)	5.00196E-6	
Y (m)	-1.45144E-6	
Z (m)	-103.169E-9	
Z offset (m)	0E+0	
Settling time (s)	200E-6	
Integration time (s)	100E-6	
Z-Ctrl hold	TRUE	
Final Z (m)	N/A	
Start time	07.11.2019 11:27:02	
Filter type	None	
Order		
Cutoff frq		

[DATA]
Bias calc (V)	OC D1 Amplitude (m)	OC M1 Freq. Shift (Hz)	OC D1 Amplitude [bwd] (m)	OC M1 Freq. Shift [bwd] (Hz)
-1.0000000E+0	19.388731E-9	-82.574867E+0	19.554083E-9	-82.937660E+0
-992.15686E-3	19.379712E-9	-82.281281E+0	19.569539E-9	-82.618034E+0
-984.31373E-3	19.379199E-9	-81.644142E+0	19.582359E-9	-82.076889E+0
-976.47059E-3	19.366638E-9	-81.997414E+0	19.594635E-9	-82.943504E+0
-968.62745E-3	19.357877E-9	-80.678299E+0	19.605386E-9	-80.569443E+0
-960.78432E-3	19.355369E-9	-79.871353E+0	19.619819E-9	-79.845917E+0
-952.94118E-3	19.349155E-9	-78.764267E+0	19.629656E-9	-78.403419E+0
-945.09804E-3	19.347150E-9	-78.793068E+0	19.636586E-9	-78.951721E+0
-937.25491E-3	19.339732E-9	-78.025406E+0	19.643656E-9	-78.445190E+0
-929.41177E-3	19.337147E-9	-78.613914E+0	19.658740E-9	-78.480568E+0
-921.56863E-3	19.330621E-9	-78.129082E+0	19.662975E-9	-78.846809E+0
-913.72550E-3	19.323204E-9	-78.188408E+0	19.678399E-9	-78.059235E+0
-905.88236E-3	19.317749E-9	-75.537163E+0	19.693953E-9	-76.912689E+0
-898.03922E-3	19.314879E-9	-75.640213E+0	19.705217E-9	-76.579521E+0
-890.19608E-3	19.305313E-9	-76.331833E+0	19.713990E-9	-76.120995E+0
-882.35295E-3	19.303652E-9	-75.496109E+0	19.721893E-9	-73.709084E+0
-874.50981E-3	19.300508E-9	-74.899628E+0	19.727565E-9	-73.983101E+0
-866.66667E-3	19.300092E-9	-74.958672E+0	19.735698E-9	-74.203392E+0
-858.82354E-3	19.299613E-9	-73.596413E+0	19.746221E-9	-73.030960E+0
-850.98040E-3	19.297975E-9	-72.834740E+0	19.760099E-9	-73.509766E+0
-843.13726E-3	19.297518E-9	-72.041817E+0	19.769233E-9	-73.845718E+0
-835.29413E-3	19.296708E-9	-71.863327E+0	19.774259E-9	-72.339890E+0
-827.45099E-3	19.300883E-9	-71.095268E+0	19.780945E-9	-71.105560E+0
-819.60785E-3	19.298348E-9	-71.111031E+0	19.789132E-9	-71.115028E+0
-811.76472E-3	19.297653E-9	-70.567039E+0	19.795461E-9	-71.135933E+0
-803.92158E-3	19.300956E-9	-70.041512E+0	19.800133E-9	-70.401001E+0
-796.07844E-3	19.302135E-9	-69.855797E+0	19.812381E-9	-69.540176E+0
-788.23531E-3	19.305903E-9	-69.483040E+0	19.816429E-9	-70.959877E+0
-780.39217E-3	19.309143E-9	-69.405197E+0	19.823075E-9	-68.846451E+0
-772.54903E-3	19.310475E-9	-68.337555E+0	19.827766E-9	-67.989334E+0
-764.70590E-3	19.312283E-9	-68.154907E+0	19.835932E-9	-68.526924E+0
-756.86276E-3	19.309775E-9	-69.005028E+0	19.842780E-9	-67.945900E+0
-749.01962E-3	19.311649E-9	-68.472961E+0	19.855626E-9	-67.189087E+0
-741.17649E-3	19.314720E-9	-67.601402E+0	19.863503E-9	-67.164055E+0
-733.33335E-3	19.312372E-9	-66.839386E+0	19.874294E-9	-67.981537E+0
-725.49021E-3	19.312774E-9	-67.377426E+0	19.880908E-9	-66.510727E+0
-717.64708E-3	19.317389E-9	-66.706238E+0	19.887622E-9	-65.828423E+0
-709.80394E-3	19.315850E-9	-64.905777E+0	19.897200E-9	-65.706566E+0
-701.96080E-3	19.319522E-9	-64.944321E+0	19.908441E-9	-66.443115E+0
-694.11767E-3	19.322970E-9	-64.460533E+0	19.912514E-9	-64.310715E+0
-686.27453E-3	19.326791E-9	-63.769852E+0	19.924343E-9	-65.085930E+0
-678.43139E-3	19.328606E-9	-63.632710E+0	19.931331E-9	-64.734558E+0
-670.58825E-3	19.337433E-9	-63.129761E+0	19.941321E-9	-64.545876E+0
-662.74512E-3	19.340957E-9	-63.263077E+0	19.951612E-9	-63.699127E+0
-654.90198E-3	19.342412E-9	-62.146587E+0	19.956463E-9	-63.508278E+0
-647.05884E-3	19.347427E-9	-62.164909E+0	19.966194E-9	-62.527462E+0
-639.21571E-3	19.348112E-9	-61.322952E+0	19.977913E-9	-61.428905E+0
-631.37257E-3	19.359309E-9	-60.068062E+0	19.981877E-9	-61.723232E+0
-623.52937E-3	19.364261E-9	-60.990479E+0	19.990715E-9	-61.870255E+0
-615.68624E-3	19.367585E-9	-60.992138E+0	19.998888E-9	-60.915024E+0
-607.84310E-3	19.370496E-9	-60.388973E+0	20.000497E-9	-60.370567E+0
-599.99996E-3	19.373186E-9	-59.505615E+0	20.012838E-9	-60.268532E+0
-592.15683E-3	19.377076E-9	-59.772110E+0	20.015651E-9	-60.027424E+0
-584.31369E-3	19.381886E-9	-59.405640E+0	20.019476E-9	-58.205021E+0
-576.47055E-3	19.387349E-9	-59.486912E+0	20.025766E-9	-58.566772E+0
-568.62742E-3	19.392081E-9	-58.431099E+0	20.029136E-9	-59.429573E+0
-560.78428E-3	19.392619E-9	-58.803886E+0	20.033879E-9	-58.608162E+0
-552.94114E-3	19.399302E-9	-58.238640E+0	20.038767E-9	-57.289040E+0
-545.09801E-3	19.397120E-9	-57.522366E+0	20.044729E-9	-58.372959E+0
-537.25487E-3	19.407260E-9	-57.206291E+0	20.046325E-9	-58.293728E+0
-529.41173E-3	19.416563E-9	-56.713707E+0	20.053500E-9	-56.234005E+0
-521.56860E-3	19.420085E-9	-55.796265E+0	20.055115E-9	-57.797546E+0
-513.72546E-3	19.424375E-9	-56.818737E+0	20.062387E-9	-56.927261E+0
-505.88232E-3	19.430823E-9	-56.143875E+0	20.065377E-9	-55.437328E+0
-498.03919E-3	19.436435E-9	-55.072430E+0	20.073546E-9	-55.763035E+0
-490.19605E-3	19.439346E-9	-54.732758E+0	20.079254E-9	-55.532776E+0
-482.35291E-3	19.448812E-9	-56.291328E+0	20.081066E-9	-55.875217E+0
-474.50978E-3	19.447159E-9	-54.981735E+0	20.085821E-9	-54.504478E+0
-466.66664E-3	19.457515E-9	-54.219456E+0	20.095326E-9	-54.950420E+0
-458.82350E-3	19.464414E-9	-53.700741E+0	20.096619E-9	-55.476437E+0
-450.98037E-3	19.469406E-9	-53.155323E+0	20.100828E-9	-54.867966E+0
-443.13723E-3	19.478041E-9	-53.466599E+0	20.110489E-9	-54.275497E+0
-435.29409E-3	19.483746E-9	-52.805809E+0	20.119082E-9	-54.620438E+0
-427.45095E-3	19.491013E-9	-52.870876E+0	20.119161E-9	-53.626030E+0
-419.60782E-3	19.501712E-9	-52.266754E+0	20.119737E-9	-51.773380E+0
-411.76468E-3	19.502375E-9	-51.791218E+0	20.123299E-9	-52.498520E+0
-403.92154E-3	19.518508E-9	-51.820248E+0	20.126883E-9	-52.326542E+0
-396.07841E-3	19.524091E-9	-51.268005E+0	20.131852E-9	-51.596272E+0
-388.23527E-3	19.528450E-9	-51.245350E+0	20.132918E-9	-51.774818E+0
-380.39213E-3	19.539558E-9	-50.756802E+0	20.133271E-9	-51.970932E+0
-372.54900E-3	19.542465E-9	-51.569279E+0	20.141949E-9	-51.898510E+0
-364.70586E-3	19.553401E-9	-49.730522E+0	20.141918E-9	-50.367744E+0
-356.86272E-3	19.558373E-9	-49.686234E+0	20.144633E-9	-49.719540E+0
-349.01959E-3	19.563965E-9	-50.257862E+0	20.146361E-9	-51.031200E+0
-341.17645E-3	19.576222E-9	-50.218212E+0	20.149553E-9	-48.603218E+0
-333.33331E-3	19.583048E-9	-49.771214E+0	20.155396E-9	-48.972176E+0
-325.49018E-3	19.587615E-9	-48.659645E+0	20.156364E-9	-49.768291E+0
-317.64704E-3	19.596746E-9	-49.723446E+0	20.160872E-9	-49.486912E+0
-309.80390E-3	19.604780E-9	-49.638191E+0	20.163267E-9	-47.180080E+0
-301.96077E-3	19.608519E-9	-49.191280E+0	20.161197E-9	-48.374779E+0
-294.11763E-3	19.615278E-9	-48.949409E+0	20.163164E-9	-49.208157E+0
-286.27449E-3	19.621176E-9	-48.077198E+0	20.167647E-9	-48.421242E+0
-278.43136E-3	19.623135E-9	-47.865696E+0	20.171562E-9	-47.253185E+0
-270.58822E-3	19.634333E-9	-47.787315E+0	20.175637E-9	-48.147976E+0
-262.74508E-3	19.639584E-9	-47.457317E+0	20.177119E-9	-47.947437E+0
-254.90195E-3	19.646892E-9	-47.004963E+0	20.181021E-9	-47.175812E+0
-247.05875E-3	19.650207E-9	-46.685143E+0	20.186949E-9	-47.273769E+0
-239.21561E-3	19.658577E-9	-46.789906E+0	20.189118E-9	-46.688110E+0
-231.37248E-3	19.667635E-9	-46.988152E+0	20.187180E-9	-46.213467E+0
-223.52934E-3	19.674657E-9	-45.651653E+0	20.187134E-9	-46.057232E+0
-215.68620E-3	19.678318E-9	-46.012829E+0	20.191180E-9	-46.591942E+0
-207.84307E-3	19.682766E-9	-46.281231E+0	20.197385E-9	-46.182236E+0
-199.99993E-3	19.695122E-9	-46.138458E+0	20.195989E-9	-45.632423E+0
-192.15679E-3	19.705501E-9	-44.960968E+0	20.198129E-9	-46.137421E+0
-184.31365E-3	19.707164E-9	-44.713268E+0	20.197676E-9	-46.348892E+0
-176.47052E-3	19.716335E-9	-45.212631E+0	20.202387E-9	-45.615383E+0
-168.62738E-3	19.720350E-9	-44.729694E+0	20.207754E-9	-44.296238E+0
-160.78424E-3	19.726977E-9	-44.657593E+0	20.206500E-9	-44.868473E+0
-152.94111E-3	19.730164E-9	-44.770298E+0	20.209539E-9	-44.963295E+0
-145.09797E-3	19.736234E-9	-44.417057E+0	20.210843E-9	-44.780666E+0
-137.25483E-3	19.739572E-9	-44.177017E+0	20.213593E-9	-44.970078E+0
-129.41170E-3	19.741414E-9	-44.446991E+0	20.218060E-9	-44.795689E+0
-121.56856E-3	19.750212E-9	-44.568588E+0	20.218922E-9	-43.868271E+0
-113.72542E-3	19.755348E-9	-43.013752E+0	20.222723E-9	-43.829666E+0
-105.88229E-3	19.761959E-9	-42.540283E+0	20.221977E-9	-43.943707E+0
-98.039150E-3	19.766626E-9	-44.324860E+0	20.225967E-9	-44.192986E+0
-90.196013E-3	19.774124E-9	-43.993267E+0	20.228857E-9	-43.043243E+0
-82.352877E-3	19.779209E-9	-42.385593E+0	20.228624E-9	-42.779190E+0
-74.509740E-3	19.783531E-9	-42.366055E+0	20.231678E-9	-43.037094E+0
-66.666603E-3	19.789276E-9	-42.776604E+0	20.230967E-9	-42.537201E+0
-58.823466E-3	19.796342E-9	-42.689999E+0	20.230091E-9	-41.882519E+0
-50.980330E-3	19.803750E-9	-42.228268E+0	20.236087E-9	-42.880905E+0
-43.137193E-3	19.810168E-9	-42.391941E+0	20.238701E-9	-42.269600E+0
-35.294056E-3	19.818073E-9	-42.146141E+0	20.241785E-9	-41.614857E+0
-27.450919E-3	19.824769E-9	-41.812511E+0	20.245837E-9	-42.016052E+0
-19.607782E-3	19.830106E-9	-42.079624E+0	20.248782E-9	-42.110046E+0
-11.764646E-3	19.837284E-9	-41.462616E+0	20.246578E-9	-41.709820E+0
-3.9215088E-3	19.843972E-9	-40.787567E+0	20.250353E-9	-40.909397E+0
3.9216280E-3	19.849180E-9	-40.683434E+0	20.250527E-9	-41.536663E+0
11.764765E-3	19.858087E-9	-41.864452E+0	20.251369E-9	-41.127666E+0
19.607902E-3	19.868059E-9	-40.870995E+0	20.254298E-9	-40.144154E+0
27.451038E-3	19.876213E-9	-39.910763E+0	20.257353E-9	-40.031082E+0
35.294175E-3	19.880524E-9	-40.674034E+0	20.255678E-9	-41.443829E+0
43.137312E-3	19.884153E-9	-41.070263E+0	20.255603E-9	-40.773201E+0
50.980449E-3	19.889884E-9	-39.178043E+0	20.256362E-9	-39.274490E+0
58.823586E-3	19.895149E-9	-39.243622E+0	20.261657E-9	-39.824802E+0
66.666722E-3	19.900796E-9	-39.689262E+0	20.260540E-9	-40.118824E+0
74.509859E-3	19.904334E-9	-40.199932E+0	20.262744E-9	-39.055408E+0
82.352996E-3	19.915877E-9	-39.730015E+0	20.263238E-9	-39.377594E+0
90.196133E-3	19.923005E-9	-38.861103E+0	20.264229E-9	-40.155163E+0
98.039269E-3	19.929930E-9	-39.188374E+0	20.261329E-9	-40.133610E+0
105.88241E-3	19.935419E-9	-39.403313E+0	20.264094E-9	-39.538948E+0
113.72554E-3	19.938698E-9	-39.128056E+0	20.268651E-9	-38.646824E+0
121.56868E-3	19.940778E-9	-39.298866E+0	20.268473E-9	-39.710606E+0
129.41182E-3	19.946892E-9	-38.520969E+0	20.265894E-9	-37.559856E+0
137.25495E-3	19.951482E-9	-38.948196E+0	20.268198E-9	-38.686939E+0
145.09809E-3	19.958145E-9	-38.784443E+0	20.268102E-9	-38.925129E+0
152.94123E-3	19.961753E-9	-39.097946E+0	20.269209E-9	-38.726360E+0
160.78436E-3	19.967814E-9	-38.131134E+0	20.276302E-9	-37.130112E+0
168.62750E-3	19.974923E-9	-36.982124E+0	20.276996E-9	-37.589684E+0
176.47064E-3	19.978890E-9	-38.491440E+0	20.274456E-9	-38.361477E+0
184.31377E-3	19.987695E-9	-38.404152E+0	20.276405E-9	-37.983730E+0
192.15691E-3	19.991724E-9	-37.409443E+0	20.275387E-9	-37.263084E+0
200.00005E-3	20.001474E-9	-37.163406E+0	20.275550E-9	-38.360104E+0
207.84318E-3	20.002581E-9	-37.803463E+0	20.275683E-9	-37.719231E+0
215.68632E-3	20.008660E-9	-38.055664E+0	20.273864E-9	-37.644089E+0
223.52946E-3	20.012749E-9	-38.128967E+0	20.273438E-9	-37.319134E+0
231.37259E-3	20.016047E-9	-36.672348E+0	20.271116E-9	-37.455883E+0
239.21573E-3	20.024796E-9	-37.313728E+0	20.275964E-9	-36.793251E+0
247.05887E-3	20.029949E-9	-36.969368E+0	20.271427E-9	-36.400642E+0
254.90201E-3	20.030734E-9	-36.821545E+0	20.268066E-9	-37.550556E+0
262.74514E-3	20.038170E-9	-37.442070E+0	20.269354E-9	-37.943001E+0
270.58828E-3	20.040245E-9	-37.758488E+0	20.266679E-9	-36.228142E+0
278.43142E-3	20.050663E-9	-36.401703E+0	20.269187E-9	-36.053692E+0
286.27455E-3	20.054213E-9	-36.868374E+0	20.268496E-9	-37.033913E+0
294.11769E-3	20.060224E-9	-37.552757E+0	20.266627E-9	-36.720291E+0
301.96083E-3	20.066270E-9	-36.560287E+0	20.265535E-9	-36.279716E+0
309.80396E-3	20.061300E-9	-36.215424E+0	20.265533E-9	-36.250343E+0
317.64710E-3	20.067741E-9	-37.573780E+0	20.270523E-9	-36.793606E+0
325.49024E-3	20.072747E-9	-37.715630E+0	20.268160E-9	-36.238537E+0
333.33337E-3	20.074904E-9	-37.140568E+0	20.268338E-9	-35.918903E+0
341.17651E-3	20.082018E-9	-36.687469E+0	20.266171E-9	-37.219009E+0
349.01965E-3	20.084508E-9	-36.972549E+0	20.270161E-9	-37.110844E+0
356.86278E-3	20.087565E-9	-36.972950E+0	20.268379E-9	-35.641384E+0
364.70592E-3	20.089068E-9	-36.498405E+0	20.267839E-9	-36.213776E+0
372.54906E-3	20.096063E-9	-36.512726E+0	20.268859E-9	-36.988186E+0
380.39219E-3	20.100590E-9	-36.866394E+0	20.267155E-9	-36.708916E+0
388.23533E-3	20.102039E-9	-36.532612E+0	20.272994E-9	-35.598892E+0
396.07847E-3	20.107672E-9	-36.670452E+0	20.273299E-9	-36.647381E+0
403.92160E-3	20.109550E-9	-36.806152E+0	20.269884E-9	-36.818092E+0
411.76474E-3	20.113204E-9	-36.757191E+0	20.267672E-9	-34.833755E+0
419.60788E-3	20.117868E-9	-35.176975E+0	20.269196E-9	-35.144554E+0
427.45101E-3	20.116103E-9	-36.001431E+0	20.270402E-9	-36.293777E+0
435.29415E-3	20.120707E-9	-37.295559E+0	20.271701E-9	-35.985775E+0
443.13729E-3	20.125849E-9	-36.256966E+0	20.273990E-9	-35.555729E+0
450.98042E-3	20.131688E-9	-35.998821E+0	20.276067E-9	-36.271446E+0
458.82356E-3	20.137609E-9	-36.917763E+0	20.281140E-9	-36.873695E+0
466.66670E-3	20.139781E-9	-36.400387E+0	20.283712E-9	-35.472557E+0
474.50984E-3	20.146659E-9	-36.128841E+0	20.284252E-9	-36.486996E+0
482.35297E-3	20.148947E-9	-36.566135E+0	20.285391E-9	-36.586273E+0
490.19611E-3	20.148899E-9	-37.140770E+0	20.284935E-9	-36.785858E+0
498.03925E-3	20.154191E-9	-36.606213E+0	20.292008E-9	-35.754635E+0
505.88250E-3	20.159163E-9	-36.287197E+0	20.292763E-9	-35.824600E+0
513.72564E-3	20.161902E-9	-36.610981E+0	20.290052E-9	-36.463367E+0
521.56878E-3	20.162940E-9	-36.419617E+0	20.294804E-9	-35.596817E+0
529.41191E-3	20.165736E-9	-36.243324E+0	20.291660E-9	-35.573799E+0
537.25505E-3	20.170148E-9	-36.779812E+0	20.293806E-9	-36.664795E+0
545.09819E-3	20.172124E-9	-37.008301E+0	20.302769E-9	-36.458050E+0
552.94132E-3	20.172989E-9	-36.516758E+0	20.304636E-9	-35.731998E+0
560.78446E-3	20.175232E-9	-35.806339E+0	20.302668E-9	-35.697201E+0
568.62760E-3	20.178911E-9	-36.923336E+0	20.300138E-9	-36.438358E+0
576.47073E-3	20.179288E-9	-36.816963E+0	20.303318E-9	-36.189072E+0
584.31387E-3	20.184146E-9	-36.402309E+0	20.305317E-9	-35.089329E+0
592.15701E-3	20.186040E-9	-36.107212E+0	20.307066E-9	-36.197727E+0
600.00014E-3	20.188320E-9	-36.113499E+0	20.307832E-9	-36.760860E+0
607.84328E-3	20.194060E-9	-36.625362E+0	20.310347E-9	-35.139477E+0
615.68642E-3	20.194197E-9	-35.687416E+0	20.309667E-9	-35.586891E+0
623.52955E-3	20.195575E-9	-35.800850E+0	20.309686E-9	-36.227612E+0
631.37269E-3	20.196486E-9	-36.517487E+0	20.313841E-9	-35.917168E+0
639.21583E-3	20.199439E-9	-36.598194E+0	20.311550E-9	-35.356014E+0
647.05896E-3	20.202911E-9	-36.184399E+0	20.314740E-9	-36.523335E+0
654.90210E-3	20.203940E-9	-37.575146E+0	20.314443E-9	-36.684052E+0
662.74524E-3	20.203807E-9	-36.820736E+0	20.317087E-9	-35.346516E+0
670.58837E-3	20.202579E-9	-36.230961E+0	20.314310E-9	-35.813168E+0
678.43151E-3	20.207530E-9	-36.160465E+0	20.311015E-9	-37.095734E+0
686.27465E-3	20.211457E-9	-37.028862E+0	20.310887E-9	-37.105164E+0
694.11778E-3	20.214712E-9	-35.919838E+0	20.307663E-9	-35.737434E+0
701.96092E-3	20.217266E-9	-35.106865E+0	20.305041E-9	-36.352821E+0
709.80406E-3	20.220577E-9	-36.761589E+0	20.302666E-9	-37.076786E+0
717.64719E-3	20.225883E-9	-36.693123E+0	20.301334E-9	-36.867886E+0
725.49033E-3	20.226580E-9	-35.887951E+0	20.301647E-9	-36.205795E+0
733.33347E-3	20.228189E-9	-35.519173E+0	20.299758E-9	-37.450047E+0
741.17661E-3	20.233115E-9	-36.609478E+0	20.302046E-9	-37.515961E+0
749.01974E-3	20.231523E-9	-36.934994E+0	20.301020E-9	-37.141014E+0
756.86288E-3	20.236708E-9	-35.340343E+0	20.301323E-9	-37.116375E+0
764.70602E-3	20.236186E-9	-36.673119E+0	20.299812E-9	-37.574600E+0
772.54915E-3	20.235557E-9	-37.495453E+0	20.301753E-9	-37.700077E+0
780.39229E-3	20.241401E-9	-36.985874E+0	20.299014E-9	-36.918072E+0
788.23543E-3	20.245499E-9	-37.402088E+0	20.296977E-9	-37.875256E+0
796.07856E-3	20.245919E-9	-37.159782E+0	20.297964E-9	-37.679165E+0
803.92170E-3	20.248045E-9	-36.939201E+0	20.298319E-9	-36.334778E+0
811.76484E-3	20.252445E-9	-36.540077E+0	20.295804E-9	-37.414768E+0
819.60797E-3	20.251624E-9	-37.243660E+0	20.296028E-9	-38.626892E+0
827.45111E-3	20.253363E-9	-38.088104E+0	20.294870E-9	-38.189190E+0
835.29425E-3	20.255252E-9	-37.307346E+0	20.298105E-9	-37.618031E+0
843.13738E-3	20.256753E-9	-37.164162E+0	20.296241E-9	-37.900764E+0
850.98052E-3	20.259296E-9	-38.208729E+0	20.293228E-9	-38.616074E+0
858.82366E-3	20.260396E-9	-38.928455E+0	20.291406E-9	-37.824375E+0
866.66679E-3	20.263050E-9	-37.920734E+0	20.291651E-9	-37.642460E+0
874.50993E-3	20.265384E-9	-38.256088E+0	20.285515E-9	-38.406586E+0
882.35307E-3	20.264615E-9	-38.865604E+0	20.282226E-9	-38.395287E+0
890.19620E-3	20.269264E-9	-39.225822E+0	20.280186E-9	-38.342876E+0
898.03934E-3	20.268550E-9	-38.372128E+0	20.286855E-9	-38.891468E+0
905.88248E-3	20.263279E-9	-38.277306E+0	20.279773E-9	-39.361866E+0
913.72561E-3	20.265359E-9	-38.976967E+0	20.281140E-9	-38.401142E+0
921.56875E-3	20.266530E-9	-38.913097E+0	20.284267E-9	-39.046440E+0
929.41189E-3	20.266436E-9	-39.136574E+0	20.281364E-9	-40.028065E+0
937.25502E-3	20.266455E-9	-39.846992E+0	20.280829E-9	-38.710052E+0
945.09816E-3	20.270619E-9	-39.084198E+0	20.281938E-9	-39.259426E+0
952.94130E-3	20.271893E-9	-38.851093E+0	20.283485E-9	-39.350067E+0
960.78444E-3	20.272346E-9	-39.794647E+0	20.281108E-9	-40.697155E+0
968.62757E-3	20.271886E-9	-39.957233E+0	20.282911E-9	-39.757885E+0
976.47071E-3	20.273564E-9	-39.609173E+0	20.278442E-9	-39.356903E+0
984.31385E-3	20.275911E-9	-39.214325E+0	20.275255E-9	-40.517246E+0
992.15698E-3	20.275012E-9	-40.716789E+0	20.275165E-9	-40.413437E+0
1.0000000E+0	20.275172E-9	-40.592686E+0	20.275975E-9	-39.443806E+0
