Experiment	Experiment	
Saved Date	30.01.2019 15:28:33	
User		
f_res (Hz)	59582.4580	
Q	173	
Phase (deg)	-590.81	
Amp/Exc (nm/mV)	4435155.500	
Number of points	256	
Fit length	 	

[DATA]
OC M1 Freq. Shift (Hz)	OC M1 Center Freq. (Hz)	OC D1 Amplitude (m)	OC D1 Phase (deg)
-4.0000000E+3	59.584008E+3	28.516615E-3	149.87805E+0
-3.9686274E+3	59.584008E+3	24.419205E-3	155.71529E+0
-3.9372549E+3	59.584008E+3	24.592271E-3	164.14946E+0
-3.9058823E+3	59.584008E+3	25.160838E-3	167.03905E+0
-3.8745098E+3	59.584008E+3	28.209759E-3	155.65158E+0
-3.8431372E+3	59.584008E+3	34.117278E-3	171.96422E+0
-3.8117646E+3	59.584008E+3	36.049642E-3	165.89738E+0
-3.7803921E+3	59.584008E+3	35.769489E-3	163.99773E+0
-3.7490195E+3	59.584008E+3	37.421744E-3	164.55522E+0
-3.7176470E+3	59.584008E+3	41.185994E-3	163.10886E+0
-3.6862744E+3	59.584008E+3	44.958074E-3	159.01613E+0
-3.6549019E+3	59.584008E+3	48.162792E-3	153.22971E+0
-3.6235293E+3	59.584008E+3	50.931156E-3	144.10172E+0
-3.5921567E+3	59.584008E+3	50.069850E-3	133.94753E+0
-3.5607842E+3	59.584008E+3	46.016946E-3	123.80553E+0
-3.5294116E+3	59.584008E+3	39.213099E-3	113.74574E+0
-3.4980391E+3	59.584008E+3	29.850408E-3	110.20625E+0
-3.4666665E+3	59.584008E+3	21.467550E-3	114.23456E+0
-3.4352939E+3	59.584008E+3	16.464038E-3	134.18515E+0
-3.4039214E+3	59.584008E+3	17.947098E-3	158.85945E+0
-3.3725488E+3	59.584008E+3	22.628108E-3	165.90291E+0
-3.3411763E+3	59.584008E+3	28.968044E-3	93.461731E+0
-3.3098037E+3	59.584008E+3	38.426604E-3	82.276115E+0
-3.2784312E+3	59.584008E+3	48.132908E-3	170.85390E+0
-3.2470586E+3	59.584008E+3	51.754024E-3	163.02803E+0
-3.2156860E+3	59.584008E+3	54.687742E-3	161.08789E+0
-3.1843135E+3	59.584008E+3	63.515104E-3	159.35803E+0
-3.1529409E+3	59.584008E+3	74.692048E-3	152.02371E+0
-3.1215684E+3	59.584008E+3	79.917915E-3	142.35516E+0
-3.0901958E+3	59.584008E+3	83.923154E-3	134.22563E+0
-3.0588232E+3	59.584008E+3	86.470142E-3	125.42742E+0
-3.0274507E+3	59.584008E+3	84.869549E-3	116.54638E+0
-2.9960781E+3	59.584008E+3	82.069509E-3	109.40264E+0
-2.9647056E+3	59.584008E+3	77.437289E-3	103.94511E+0
-2.9333330E+3	59.584008E+3	72.985031E-3	101.62051E+0
-2.9019604E+3	59.584008E+3	73.376089E-3	100.80683E+0
-2.8705879E+3	59.584008E+3	76.320909E-3	97.113403E+0
-2.8392153E+3	59.584008E+3	77.424891E-3	91.692513E+0
-2.8078428E+3	59.584008E+3	76.286182E-3	86.355904E+0
-2.7764702E+3	59.584008E+3	74.437067E-3	82.818314E+0
-2.7450977E+3	59.584008E+3	75.115651E-3	79.488785E+0
-2.7137251E+3	59.584008E+3	75.361051E-3	74.688126E+0
-2.6823525E+3	59.584008E+3	73.928840E-3	71.029625E+0
-2.6509800E+3	59.584008E+3	76.078512E-3	66.600822E+0
-2.6196074E+3	59.584008E+3	75.834461E-3	60.067059E+0
-2.5882349E+3	59.584008E+3	72.179303E-3	54.774670E+0
-2.5568623E+3	59.584008E+3	72.487585E-3	53.050919E+0
-2.5254897E+3	59.584008E+3	72.525099E-3	48.892769E+0
-2.4941172E+3	59.584008E+3	76.900572E-3	42.129753E+0
-2.4627446E+3	59.584008E+3	78.571372E-3	32.370338E+0
-2.4313721E+3	59.584008E+3	71.064025E-3	23.326399E+0
-2.3999995E+3	59.584008E+3	69.612406E-3	13.572273E+0
-2.3686270E+3	59.584008E+3	62.900096E-3	5.5839176E+0
-2.3372544E+3	59.584008E+3	58.868121E-3	-3.7139754E+0
-2.3058818E+3	59.584008E+3	51.716659E-3	-11.810628E+0
-2.2745093E+3	59.584008E+3	45.783494E-3	-18.502605E+0
-2.2431367E+3	59.584008E+3	39.723899E-3	-24.714174E+0
-2.2117642E+3	59.584008E+3	35.183351E-3	-31.158619E+0
-2.1803916E+3	59.584008E+3	31.009128E-3	-39.997936E+0
-2.1490190E+3	59.584008E+3	26.063871E-3	-52.250061E+0
-2.1176465E+3	59.584008E+3	18.956536E-3	-66.888466E+0
-2.0862739E+3	59.584008E+3	11.149087E-3	-76.153450E+0
-2.0549014E+3	59.584008E+3	6.3307788E-3	-57.116585E+0
-2.0235288E+3	59.584008E+3	4.3830178E-3	-8.0074348E+0
-1.9921562E+3	59.584008E+3	6.4986497E-3	15.938106E+0
-1.9607837E+3	59.584008E+3	8.0300327E-3	14.064660E+0
-1.9294111E+3	59.584008E+3	9.5843170E-3	-11.590094E+0
-1.8980386E+3	59.584008E+3	6.0652080E-3	-26.897266E+0
-1.8666660E+3	59.584008E+3	4.9240193E-3	-7.2653980E+0
-1.8352935E+3	59.584008E+3	4.5537702E-3	7.7056999E+0
-1.8039209E+3	59.584008E+3	4.4624219E-3	21.683899E+0
-1.7725483E+3	59.584008E+3	5.1601124E-3	34.694698E+0
-1.7411758E+3	59.584008E+3	5.9025055E-3	42.682373E+0
-1.7098032E+3	59.584008E+3	6.6254353E-3	37.964493E+0
-1.6784307E+3	59.584008E+3	6.4638862E-3	27.435703E+0
-1.6470581E+3	59.584008E+3	7.1609989E-3	35.085922E+0
-1.6156855E+3	59.584008E+3	8.8133495E-3	22.241648E+0
-1.5843130E+3	59.584008E+3	12.263090E-3	230.48586E-3
-1.5529404E+3	59.584008E+3	13.746483E-3	-27.316357E+0
-1.5215679E+3	59.584008E+3	16.179156E-3	-52.965385E+0
-1.4901953E+3	59.584008E+3	19.346038E-3	-78.570679E+0
-1.4588228E+3	59.584008E+3	20.664496E-3	-107.78580E+0
-1.4274502E+3	59.584008E+3	18.131699E-3	-125.24638E+0
-1.3960776E+3	59.584008E+3	17.996421E-3	-122.25524E+0
-1.3647051E+3	59.584008E+3	24.223963E-3	-126.75284E+0
-1.3333325E+3	59.584008E+3	29.988404E-3	-138.34538E+0
-1.3019600E+3	59.584008E+3	35.404004E-3	-150.60999E+0
-1.2705874E+3	59.584008E+3	38.555931E-3	-161.57414E+0
-1.2392148E+3	59.584008E+3	41.113522E-3	-157.39853E+0
-1.2078423E+3	59.584008E+3	42.553332E-3	-9.4703054E+0
-1.1764697E+3	59.584008E+3	41.503388E-3	101.64967E+0
-1.1450972E+3	59.584008E+3	42.286135E-3	96.810524E+0
-1.1137246E+3	59.584008E+3	46.411991E-3	73.492714E+0
-1.0823521E+3	59.584008E+3	53.348090E-3	61.253231E+0
-1.0509795E+3	59.584008E+3	59.701480E-3	145.53877E+0
-1.0196069E+3	59.584008E+3	73.845558E-3	170.46632E+0
-988.23438E+0	59.584008E+3	87.625682E-3	161.63596E+0
-956.86182E+0	59.584008E+3	90.556867E-3	153.65536E+0
-925.48926E+0	59.584008E+3	100.47635E-3	145.33356E+0
-894.11670E+0	59.584008E+3	103.70258E-3	136.27641E+0
-862.74414E+0	59.584008E+3	98.365091E-3	130.09755E+0
-831.37158E+0	59.584008E+3	97.752340E-3	130.21826E+0
-799.99902E+0	59.584008E+3	105.97555E-3	129.42480E+0
-768.62646E+0	59.584008E+3	115.82898E-3	125.90508E+0
-737.25391E+0	59.584008E+3	121.54438E-3	121.01826E+0
-705.88135E+0	59.584008E+3	127.77413E-3	119.77470E+0
-674.50879E+0	59.584008E+3	142.93779E-3	115.24815E+0
-643.13623E+0	59.584008E+3	151.21065E-3	109.15377E+0
-611.76367E+0	59.584008E+3	159.57738E-3	103.25080E+0
-580.39111E+0	59.584008E+3	164.28527E-3	99.949142E+0
-549.01855E+0	59.584008E+3	159.46978E-3	90.170677E+0
-517.64600E+0	59.584008E+3	144.30618E-3	93.414459E+0
-486.27344E+0	59.584008E+3	162.06309E-3	98.952354E+0
-454.90088E+0	59.584008E+3	170.98038E-3	97.440849E+0
-423.52832E+0	59.584008E+3	215.33902E-3	99.239143E+0
-392.15576E+0	59.584008E+3	266.82699E-3	90.518082E+0
-360.78320E+0	59.584008E+3	285.32761E-3	78.613312E+0
-329.41064E+0	59.584008E+3	292.28011E-3	74.873787E+0
-298.03809E+0	59.584008E+3	332.25903E-3	68.199959E+0
-266.66553E+0	59.584008E+3	346.92526E-3	57.882370E+0
-235.29298E+0	59.584008E+3	345.77489E-3	51.309559E+0
-203.92044E+0	59.584008E+3	352.30711E-3	47.166946E+0
-172.54790E+0	59.584008E+3	371.88309E-3	43.055416E+0
-141.17535E+0	59.584008E+3	394.58063E-3	39.024940E+0
-109.80280E+0	59.584008E+3	439.01119E-3	35.866692E+0
-78.430252E+0	59.584008E+3	476.49536E-3	31.681038E+0
-47.057701E+0	59.584008E+3	631.82998E-3	19.707869E+0
-15.685152E+0	59.584008E+3	665.27337E-3	1.8546548E+0
15.687397E+0	59.584008E+3	641.70933E-3	-14.026794E+0
47.059944E+0	59.584008E+3	588.76163E-3	-24.535471E+0
78.432495E+0	59.584008E+3	593.41824E-3	-32.863796E+0
109.80505E+0	59.584008E+3	588.72175E-3	-48.042118E+0
141.17760E+0	59.584008E+3	501.85943E-3	-61.529236E+0
172.55014E+0	59.584008E+3	423.74521E-3	-68.154442E+0
203.92268E+0	59.584008E+3	371.05358E-3	-73.065262E+0
235.29523E+0	59.584008E+3	321.65340E-3	-75.656212E+0
266.66779E+0	59.584008E+3	295.67346E-3	-75.179878E+0
298.04034E+0	59.584008E+3	290.34194E-3	-75.793289E+0
329.41290E+0	59.584008E+3	292.68956E-3	-78.391380E+0
360.78546E+0	59.584008E+3	289.04861E-3	-84.869553E+0
392.15802E+0	59.584008E+3	260.13789E-3	-87.764885E+0
423.53058E+0	59.584008E+3	288.70016E-3	-88.847687E+0
454.90314E+0	59.584008E+3	266.04372E-3	-96.996796E+0
486.27570E+0	59.584008E+3	267.82498E-3	-97.505470E+0
517.64825E+0	59.584008E+3	270.62985E-3	-107.46850E+0
549.02081E+0	59.584008E+3	246.24328E-3	-115.95959E+0
580.39337E+0	59.584008E+3	216.01930E-3	-120.19909E+0
611.76593E+0	59.584008E+3	199.33419E-3	-120.61187E+0
643.13849E+0	59.584008E+3	192.51722E-3	-120.94874E+0
674.51105E+0	59.584008E+3	191.11972E-3	-123.02611E+0
705.88361E+0	59.584008E+3	191.25776E-3	-126.70985E+0
737.25616E+0	59.584008E+3	187.61571E-3	-132.21605E+0
768.62872E+0	59.584008E+3	176.55982E-3	-137.26859E+0
800.00128E+0	59.584008E+3	164.81704E-3	-140.17639E+0
831.37384E+0	59.584008E+3	160.49843E-3	-140.95541E+0
862.74640E+0	59.584008E+3	161.86556E-3	-144.98633E+0
894.11896E+0	59.584008E+3	153.17570E-3	-151.00586E+0
925.49152E+0	59.584008E+3	143.78068E-3	-152.99333E+0
956.86407E+0	59.584008E+3	147.56857E-3	-156.42783E+0
988.23663E+0	59.584008E+3	138.63841E-3	-163.48715E+0
1.0196092E+3	59.584008E+3	127.22689E-3	-167.73604E+0
1.0509817E+3	59.584008E+3	116.21987E-3	-169.14107E+0
1.0823542E+3	59.584008E+3	113.39664E-3	-170.09993E+0
1.1137268E+3	59.584008E+3	111.63102E-3	-172.49557E+0
1.1450994E+3	59.584008E+3	108.28642E-3	-148.37318E+0
1.1764719E+3	59.584008E+3	101.87929E-3	61.826729E+0
1.2078445E+3	59.584008E+3	98.660059E-3	159.15192E+0
1.2392170E+3	59.584008E+3	95.031366E-3	171.28951E+0
1.2705896E+3	59.584008E+3	88.174045E-3	167.39569E+0
1.3019622E+3	59.584008E+3	82.924001E-3	164.76027E+0
1.3333347E+3	59.584008E+3	79.608023E-3	158.46268E+0
1.3647073E+3	59.584008E+3	68.052068E-3	153.90942E+0
1.3960798E+3	59.584008E+3	57.199210E-3	155.39946E+0
1.4274524E+3	59.584008E+3	53.291857E-3	162.12177E+0
1.4588250E+3	59.584008E+3	57.292685E-3	162.42014E+0
1.4901975E+3	59.584008E+3	53.126376E-3	159.15691E+0
1.5215701E+3	59.584008E+3	48.081759E-3	161.87277E+0
1.5529426E+3	59.584008E+3	48.688084E-3	168.12408E+0
1.5843152E+3	59.584008E+3	55.374775E-3	170.66565E+0
1.6156877E+3	59.584008E+3	63.684069E-3	164.94334E+0
1.6470603E+3	59.584008E+3	62.751286E-3	154.84731E+0
1.6784329E+3	59.584008E+3	57.680618E-3	153.57608E+0
1.7098054E+3	59.584008E+3	58.376815E-3	151.30653E+0
1.7411780E+3	59.584008E+3	56.761190E-3	149.52553E+0
1.7725505E+3	59.584008E+3	59.978366E-3	150.82256E+0
1.8039231E+3	59.584008E+3	69.324046E-3	145.46553E+0
1.8352957E+3	59.584008E+3	74.305765E-3	132.92628E+0
1.8666682E+3	59.584008E+3	69.615312E-3	122.19408E+0
1.8980408E+3	59.584008E+3	65.287210E-3	115.05466E+0
1.9294133E+3	59.584008E+3	64.039931E-3	108.26275E+0
1.9607859E+3	59.584008E+3	59.397545E-3	97.957253E+0
1.9921584E+3	59.584008E+3	54.706104E-3	89.696899E+0
2.0235310E+3	59.584008E+3	49.489364E-3	81.329597E+0
2.0549036E+3	59.584008E+3	43.213911E-3	70.910858E+0
2.0862761E+3	59.584008E+3	32.562517E-3	62.211548E+0
2.1176487E+3	59.584008E+3	28.333699E-3	68.225601E+0
2.1490212E+3	59.584008E+3	24.815392E-3	70.700294E+0
2.1803938E+3	59.584008E+3	25.543116E-3	68.433884E+0
2.2117664E+3	59.584008E+3	23.179624E-3	60.688251E+0
2.2431389E+3	59.584008E+3	19.163426E-3	55.545345E+0
2.2745115E+3	59.584008E+3	15.847774E-3	57.526283E+0
2.3058840E+3	59.584008E+3	14.010167E-3	61.260979E+0
2.3372566E+3	59.584008E+3	13.354279E-3	65.368797E+0
2.3686292E+3	59.584008E+3	12.909869E-3	70.478760E+0
2.4000017E+3	59.584008E+3	13.265718E-3	72.291779E+0
2.4313743E+3	59.584008E+3	14.421982E-3	70.757004E+0
2.4627468E+3	59.584008E+3	15.284708E-3	64.795044E+0
2.4941194E+3	59.584008E+3	15.056713E-3	55.003044E+0
2.5254919E+3	59.584008E+3	13.987948E-3	47.512615E+0
2.5568645E+3	59.584008E+3	12.848552E-3	43.861290E+0
2.5882371E+3	59.584008E+3	12.518995E-3	37.126118E+0
2.6196096E+3	59.584008E+3	10.825218E-3	26.940269E+0
2.6509822E+3	59.584008E+3	10.557152E-3	32.228390E+0
2.6823547E+3	59.584008E+3	10.948633E-3	20.038576E+0
2.7137273E+3	59.584008E+3	10.167632E-3	9.7401495E+0
2.7450999E+3	59.584008E+3	9.5769400E-3	-6.3960738E+0
2.7764724E+3	59.584008E+3	7.6319249E-3	-27.454849E+0
2.8078450E+3	59.584008E+3	4.7236122E-3	-48.060284E+0
2.8392175E+3	59.584008E+3	2.3624240E-3	-7.0984259E+0
2.8705901E+3	59.584008E+3	2.3892678E-3	14.532230E+0
2.9019626E+3	59.584008E+3	5.0330381E-3	65.891701E+0
2.9333352E+3	59.584008E+3	7.7004703E-3	39.440018E+0
2.9647078E+3	59.584008E+3	8.3752526E-3	10.117225E+0
2.9960803E+3	59.584008E+3	7.2729681E-3	-7.9331083E+0
3.0274529E+3	59.584008E+3	7.0773694E-3	-8.5214138E+0
3.0588254E+3	59.584008E+3	7.7622565E-3	-19.912271E+0
3.0901980E+3	59.584008E+3	8.0233356E-3	-22.369064E+0
3.1215706E+3	59.584008E+3	9.3375314E-3	-37.532173E+0
3.1529431E+3	59.584008E+3	11.162432E-3	-50.986702E+0
3.1843157E+3	59.584008E+3	9.5894504E-3	-68.804588E+0
3.2156882E+3	59.584008E+3	9.6132169E-3	-78.419342E+0
3.2470608E+3	59.584008E+3	9.1412636E-3	-92.699188E+0
3.2784333E+3	59.584008E+3	8.1452755E-3	-102.47488E+0
3.3098059E+3	59.584008E+3	7.3134177E-3	-111.74832E+0
3.3411785E+3	59.584008E+3	5.8943662E-3	-103.54487E+0
3.3725510E+3	59.584008E+3	6.0238577E-3	-98.995079E+0
3.4039236E+3	59.584008E+3	8.0487542E-3	-103.78248E+0
3.4352961E+3	59.584008E+3	7.7429283E-3	-117.82275E+0
3.4666687E+3	59.584008E+3	6.9035012E-3	-120.26039E+0
3.4980413E+3	59.584008E+3	7.0589962E-3	-113.25814E+0
3.5294138E+3	59.584008E+3	7.6264748E-3	-121.75591E+0
3.5607864E+3	59.584008E+3	7.1518845E-3	-119.72172E+0
3.5921589E+3	59.584008E+3	8.3878897E-3	-119.37528E+0
3.6235315E+3	59.584008E+3	8.1180697E-3	-127.40879E+0
3.6549041E+3	59.584008E+3	7.6116389E-3	-123.78910E+0
3.6862766E+3	59.584008E+3	8.3359051E-3	-117.69645E+0
3.7176492E+3	59.584008E+3	9.3630021E-3	-116.19028E+0
3.7490217E+3	59.584008E+3	11.960372E-3	-113.74157E+0
3.7803943E+3	59.584008E+3	15.149989E-3	-120.67200E+0
3.8117668E+3	59.584008E+3	17.751487E-3	-130.65358E+0
3.8431394E+3	59.584008E+3	19.869182E-3	-141.67882E+0
3.8745120E+3	59.584008E+3	21.489050E-3	-151.17299E+0
3.9058845E+3	59.584008E+3	23.883687E-3	-162.16249E+0
3.9372571E+3	59.584008E+3	25.262751E-3	-154.58466E+0
3.9686296E+3	59.584008E+3	25.261471E-3	170.27997E+0
4.0000022E+3	59.584008E+3	24.235860E-3	156.71312E+0
